x y z index horizontal_angle intensity ClassNum Distance Range_meter Laser_Line_Number sensorCount 
1088 2791 -44 128 2175 45 25 2840 28.400000 1 0 
1087 2722 -42 129 2225 45 25 2776 27.760000 1 0 
1087 2660 -41 130 2275 49 25 2718 27.180000 1 0 
1087 2599 -39 131 2325 49 25 2662 26.620001 1 0 
1092 2554 -38 132 2375 65 25 2623 26.230000 1 0 
1088 2488 -36 133 2425 49 25 2561 25.610001 1 0 
1089 2437 -35 134 2475 53 25 2515 25.150000 1 0 
1085 2379 -34 135 2525 49 25 2461 24.610001 1 0 
1086 2331 -33 136 2575 55 25 2418 24.180000 1 0 
1086 2283 -31 137 2625 55 25 2374 23.740000 1 0 
1085 2235 -30 138 2675 57 25 2331 23.309999 1 0 
1083 2187 -29 139 2725 59 25 2287 22.870001 1 0 
1084 2145 -28 140 2775 59 25 2251 22.510000 1 0 
1084 2105 -27 141 2825 57 25 2215 22.150000 1 0 
1081 2059 -26 142 2875 55 25 2174 21.740000 1 0 
1081 2020 -25 143 2925 55 25 2139 21.389999 1 0 
1083 1986 -24 144 2975 55 25 2111 21.110001 1 0 
1083 1933 -22 145 3050 57 25 2065 20.650000 1 0 
1084 1865 -21 146 3150 57 25 2007 20.070000 1 0 
1078 1791 -19 147 3250 57 25 1941 19.410000 1 0 
1077 1669 -16 149 3450 59 25 1839 18.389999 1 0 
234 2550 -24 67 475 47 25 2404 24.040001 2 0 
243 2532 -23 68 500 63 25 2387 23.870001 2 0 
253 2529 -23 69 525 33 25 2385 23.850000 2 0 
274 2527 -23 70 575 17 25 2385 23.850000 2 0 
285 2528 -22 71 600 35 25 2387 23.870001 2 0 
294 2517 -22 72 625 111 25 2377 23.770000 2 0 
305 2520 -22 73 650 109 25 2381 23.809999 2 0 
315 2518 -21 74 675 109 25 2381 23.809999 2 0 
325 2517 -21 75 700 109 25 2381 23.809999 2 0 
336 2516 -21 76 725 75 25 2381 23.809999 2 0 
380 2530 -20 77 825 63 25 2401 24.010000 2 0 
392 2540 -20 78 850 41 25 2413 24.129999 2 0 
293 2520 10 68 625 49 25 2380 23.799999 3 0 
304 2523 11 69 650 49 25 2384 23.840000 3 0 
314 2518 11 70 675 51 25 2380 23.799999 3 0 
325 2519 11 71 700 45 25 2383 23.830000 3 0 
310 7543 -2 494 453 250 25 7393 73.932007 13 1 
336 7531 -2 495 473 127 25 7382 73.820000 13 1 
361 7528 -1 496 493 250 25 7380 73.804001 13 1 
387 7524 -1 497 513 127 25 7378 73.780006 13 1 
413 7525 -1 498 533 127 25 7380 73.800003 13 1 
427 4917 -8 499 732 40 25 4780 47.804001 13 1 
691 7213 1 500 772 112 25 7091 70.916000 13 1 
313 2523 -17 501 991 10 25 2388 23.888000 13 1 
387 2512 -16 502 1170 10 25 2388 23.888000 13 1 
397 2520 -16 503 1191 10 25 2398 23.988001 13 1 
405 2521 -16 504 1210 10 25 2401 24.016001 13 1 
1100 2886 -2 528 2424 15 25 2948 29.484001 13 1 
1093 2816 -2 529 2464 15 25 2881 28.812002 13 1 
1094 2791 -2 530 2484 15 25 2858 28.584002 13 1 
1095 2672 -3 531 2583 12 25 2748 27.488001 13 1 
1096 2539 -3 532 2703 12 25 2628 26.288002 13 1 
1091 2486 -3 533 2742 12 25 2578 25.788002 13 1 
1091 2445 -3 534 2782 12 25 2541 25.416000 13 1 
1087 2418 -3 535 2801 10 25 2516 25.160002 13 1 
1089 2402 -3 536 2821 10 25 2501 25.016001 13 1 
1084 2373 -3 537 2841 10 25 2474 24.740002 13 1 
1088 2361 -3 538 2861 10 25 2464 24.648001 13 1 
1089 2343 -3 539 2881 10 25 2448 24.488001 13 1 
1087 2321 -3 540 2901 10 25 2428 24.288002 13 1 
1089 2306 -3 541 2921 10 25 2416 24.160002 13 1 
1087 2284 -3 542 2941 10 25 2396 23.960001 13 1 
1087 2267 -3 543 2960 10 25 2381 23.812000 13 1 
1086 2248 -3 544 2979 10 25 2363 23.636002 13 1 
1087 2232 -3 545 2999 10 25 2349 23.492001 13 1 
1087 2214 -3 546 3019 10 25 2334 23.340002 13 1 
1085 2193 -3 547 3039 10 25 2314 23.144001 13 1 
1086 2179 -3 548 3060 10 25 2302 23.028002 13 1 
1090 2170 -3 549 3079 10 25 2296 22.964001 13 1 
1084 2142 -3 550 3098 10 25 2269 22.692001 13 1 
1088 2134 -3 551 3119 10 25 2264 22.640001 13 1 
1088 2117 -3 552 3140 7 25 2249 22.492001 13 1 
1085 2096 -3 553 3159 7 25 2229 22.292002 13 1 
1086 2083 -3 554 3178 7 25 2219 22.192001 13 1 
1085 2066 -3 555 3198 7 25 2204 22.040001 13 1 
1085 2050 -4 556 3218 7 25 2189 21.892000 13 1 
1085 2035 -4 557 3238 7 25 2177 21.772001 13 1 
1084 2018 -4 558 3258 7 25 2161 21.612001 13 1 
1084 2004 -4 559 3277 7 25 2149 21.492001 13 1 
1083 1989 -4 560 3297 7 25 2136 21.360001 13 1 
1082 1972 -4 561 3317 7 25 2121 21.216002 13 1 
1084 1961 -4 562 3338 7 25 2112 21.124001 13 1 
1082 1944 -4 563 3357 7 25 2097 20.972000 13 1 
1087 1938 -4 564 3377 7 25 2094 20.944000 13 1 
1081 1915 -4 565 3397 7 25 2071 20.716002 13 1 
1081 1888 -4 567 3437 7 25 2049 20.492001 13 1 
1082 1876 -4 568 3457 7 25 2039 20.392000 13 1 
1082 1863 -4 569 3477 7 25 2029 20.292002 13 1 
1079 1833 -4 571 3516 7 25 2002 20.020000 13 1 
1080 1822 -4 572 3536 7 25 1993 19.932001 13 1 
1084 1815 -4 573 3556 7 25 1989 19.892000 13 1 
1082 1800 -4 574 3576 7 25 1975 19.756001 13 1 
1077 1781 -4 575 3596 7 25 1957 19.572001 13 1 
1079 1770 -4 576 3616 7 25 1949 19.496000 13 1 
1081 1761 -4 577 3636 7 25 1943 19.432001 13 1 
1081 1726 -4 580 3696 7 25 1914 19.148001 13 1 
1084 1774 11 9 3094 5 25 2012 20.124001 45 3 
